Datos de la Planta a lazo abierto (Gla) o lazo cerrado (Glc)
C:\Users\Paulo\Documents\PAULO\CONTROL\ETN1040\3Dprinter\3DPrinterProject\analisis\datosRecolectados\Gp_tm1000ms_19V_0a1V_3kHz_a.txt
24/09/2014 06:41:41 a.m.

r(t):Voltaje[V]          y(t):Voltaje[V]         y(t):Temp[Â°C]         Tiempo de muestreo:tm[ms]
1.000                      0.459                     27.523                     1825.203
1.000                      0.454                     27.230                     2839.205
1.000                      0.449                     26.938                     3868.807
1.000                      0.454                     27.230                     4867.209
1.000                      0.425                     25.474                     5881.210
1.000                      0.468                     28.109                     6910.812
1.000                      0.425                     25.474                     7909.214
1.000                      0.454                     27.230                     8923.216
1.000                      0.420                     25.181                     9952.818
1.000                      0.449                     26.938                     10951.219
1.000                      0.449                     26.938                     11965.221
1.000                      0.410                     24.595                     12994.823
1.000                      0.454                     27.230                     14008.825
1.000                      0.459                     27.523                     15007.226
1.000                      0.454                     27.230                     16021.228
1.000                      0.454                     27.230                     17050.83
1.000                      0.464                     27.816                     18049.232
1.000                      0.464                     27.816                     19063.234
1.000                      0.449                     26.938                     20092.835
1.000                      0.464                     27.816                     21091.237
1.000                      0.425                     25.474                     22105.239
1.000                      0.459                     27.523                     23134.841
1.000                      0.459                     27.523                     24145.243
1.000                      0.468                     28.109                     25142.045
1.000                      0.434                     26.059                     26172.447
1.000                      0.449                     26.938                     27170.849
1.000                      0.449                     26.938                     28184.851
1.000                      0.464                     27.816                     29214.452
1.000                      0.464                     27.816                     30197.254
1.000                      0.468                     28.109                     31226.856
1.000                      0.464                     27.816                     32240.858
1.000                      0.468                     28.109                     33270.460
1.000                      0.468                     28.109                     34268.861
1.000                      0.434                     26.059                     35282.863
1.000                      0.454                     27.230                     36312.465
1.000                      0.464                     27.816                     37404.467
1.000                      0.464                     27.816                     38324.868
1.000                      0.468                     28.109                     39354.470
1.000                      0.478                     28.694                     40337.272
1.000                      0.464                     27.816                     41366.874
1.000                      0.464                     27.816                     42380.876
1.000                      0.478                     28.694                     43410.477
1.000                      0.473                     28.402                     44408.879
1.000                      0.439                     26.352                     45422.881
1.000                      0.468                     28.109                     46452.483
1.000                      0.459                     27.523                     47450.884
1.000                      0.425                     25.474                     48464.886
1.000                      0.473                     28.402                     49494.488
1.000                      0.473                     28.402                     50492.890
1.000                      0.464                     27.816                     51506.892
1.000                      0.449                     26.938                     52536.493
1.000                      0.444                     26.645                     53550.495
1.000                      0.478                     28.694                     54548.897
1.000                      0.468                     28.109                     55562.899
1.000                      0.454                     27.230                     56592.501
1.000                      0.478                     28.694                     57590.902
1.000                      0.478                     28.694                     58604.904
1.000                      0.449                     26.938                     59634.506
1.000                      0.454                     27.230                     60632.908
1.000                      0.483                     28.987                     61646.909
1.000                      0.493                     29.573                     62676.511
1.000                      0.454                     27.230                     63659.313
1.000                      0.454                     27.230                     64688.915
1.000                      0.493                     29.573                     65702.917
1.000                      0.488                     29.28                     66732.518
1.000                      0.493                     29.573                     67730.920
1.000                      0.444                     26.645                     68744.922
1.000                      0.444                     26.645                     69774.524
1.000                      0.498                     29.866                     70772.926
1.000                      0.498                     29.866                     71786.927
1.000                      0.483                     28.987                     72816.529
1.000                      0.498                     29.866                     73814.931
1.000                      0.493                     29.573                     74828.933
1.000                      0.488                     29.28                     75842.934
1.000                      0.454                     27.230                     76872.536
1.000                      0.508                     30.451                     77870.938
1.000                      0.449                     26.938                     78884.940
1.000                      0.493                     29.573                     79914.542
1.000                      0.503                     30.158                     80912.943
1.000                      0.464                     27.816                     81926.945
1.000                      0.503                     30.158                     82956.547
1.000                      0.503                     30.158                     83954.949
1.000                      0.493                     29.573                     84968.950
1.000                      0.503                     30.158                     85998.552
1.000                      0.468                     28.109                     86981.354
1.000                      0.498                     29.866                     88010.956
1.000                      0.503                     30.158                     89024.958
1.000                      0.512                     30.744                     90054.559
1.000                      0.478                     28.694                     91052.961
1.000                      0.508                     30.451                     92066.963
1.000                      0.503                     30.158                     93096.565
1.000                      0.454                     27.230                     94094.966
1.000                      0.503                     30.158                     95108.968
1.000                      0.503                     30.158                     96138.57
1.000                      0.508                     30.451                     97121.372
1.000                      0.503                     30.158                     98150.974
1.000                      0.508                     30.451                     99164.975
1.000                      0.512                     30.744                     100194.577
1.000                      0.473                     28.402                     101192.979
1.000                      0.508                     30.451                     102206.981
1.000                      0.512                     30.744                     103236.582
1.000                      0.459                     27.523                     104234.984
1.000                      0.454                     27.230                     105248.986
1.000                      0.464                     27.816                     106278.588
1.000                      0.512                     30.744                     107276.990
1.000                      0.517                     31.037                     108290.991
1.000                      0.468                     28.109                     109320.593
1.000                      0.517                     31.037                     110334.595
1.000                      0.478                     28.694                     111332.997
1.000                      0.517                     31.037                     112346.998
1.000                      0.503                     30.158                     113376.600
1.000                      0.503                     30.158                     114375.002
1.000                      0.464                     27.816                     115389.004
1.000                      0.517                     31.037                     116418.606
1.000                      0.522                     31.330                     117417.007
1.000                      0.508                     30.451                     118431.009
1.000                      0.522                     31.330                     119460.611
1.000                      0.517                     31.037                     120443.413
1.000                      0.493                     29.573                     121473.014
1.000                      0.527                     31.622                     122487.016
1.000                      0.527                     31.622                     123516.618
1.000                      0.508                     30.451                     124515.020
1.000                      0.478                     28.694                     125529.022
1.000                      0.542                     32.501                     126558.623
1.000                      0.517                     31.037                     127557.025
1.000                      0.527                     31.622                     128571.027
1.000                      0.527                     31.622                     129600.629
1.000                      0.493                     29.573                     130583.430
1.000                      0.532                     31.915                     131613.032
1.000                      0.517                     31.037                     132627.034
1.000                      0.532                     31.915                     133656.636
1.000                      0.493                     29.573                     134655.038
1.000                      0.512                     30.744                     135669.039
1.000                      0.517                     31.037                     136698.641
1.000                      0.527                     31.622                     137697.043
1.000                      0.493                     29.573                     138711.045
1.000                      0.522                     31.330                     139740.647
1.000                      0.532                     31.915                     140739.048
1.000                      0.527                     31.622                     141753.050
1.000                      0.522                     31.330                     142782.652
1.000                      0.493                     29.573                     143796.654
1.000                      0.527                     31.622                     144795.056
1.000                      0.532                     31.915                     145809.057
1.000                      0.537                     32.208                     146838.659
1.000                      0.527                     31.622                     147837.061
1.000                      0.542                     32.501                     148851.063
1.000                      0.537                     32.208                     149880.664
1.000                      0.537                     32.208                     150879.066
1.000                      0.537                     32.208                     151893.068
1.000                      0.527                     31.622                     152922.670
1.000                      0.542                     32.501                     153936.672
1.000                      0.532                     31.915                     154935.073
1.000                      0.508                     30.451                     155949.075
1.000                      0.512                     30.744                     156978.677
1.000                      0.542                     32.501                     157977.079
1.000                      0.537                     32.208                     158991.080
1.000                      0.542                     32.501                     160020.682
1.000                      0.532                     31.915                     161019.084
1.000                      0.542                     32.501                     162033.086
1.000                      0.547                     32.794                     163062.688
1.000                      0.537                     32.208                     164076.689
1.000                      0.508                     30.451                     165075.091
1.000                      0.537                     32.208                     166089.093
1.000                      0.551                     33.086                     167118.695
1.000                      0.537                     32.208                     168117.096
1.000                      0.537                     32.208                     169131.098
1.000                      0.532                     31.915                     170160.7
1.000                      0.508                     30.451                     171159.102
1.000                      0.542                     32.501                     172173.104
1.000                      0.522                     31.330                     173202.705
1.000                      0.566                     33.965                     174201.107
1.000                      0.551                     33.086                     175215.109
1.000                      0.556                     33.379                     176244.711
1.000                      0.547                     32.794                     177227.512
1.000                      0.571                     34.258                     178257.114
1.000                      0.547                     32.794                     179271.116
1.000                      0.556                     33.379                     180300.718
1.000                      0.537                     32.208                     181299.120
1.000                      0.571                     34.258                     182313.121
1.000                      0.542                     32.501                     183342.723
1.000                      0.522                     31.330                     184341.125
1.000                      0.556                     33.379                     185355.127
1.000                      0.556                     33.379                     186384.728
1.000                      0.522                     31.330                     187367.530
1.000                      0.561                     33.672                     188397.132
1.000                      0.561                     33.672                     189411.134
1.000                      0.551                     33.086                     190440.736
1.000                      0.556                     33.379                     191439.137
1.000                      0.566                     33.965                     192453.139
1.000                      0.571                     34.258                     193482.741
1.000                      0.571                     34.258                     194481.143
1.000                      0.566                     33.965                     195495.144
1.000                      0.556                     33.379                     196524.746
1.000                      0.537                     32.208                     197523.148
1.000                      0.532                     31.915                     198537.150
1.000                      0.561                     33.672                     199566.752
1.000                      0.566                     33.965                     200580.754
1.000                      0.551                     33.086                     201579.155
1.000                      0.512                     30.744                     202593.157
1.000                      0.556                     33.379                     203622.759
1.000                      0.571                     34.258                     204621.160
1.000                      0.576                     34.550                     205635.162
1.000                      0.561                     33.672                     206664.764
1.000                      0.537                     32.208                     207663.166
1.000                      0.542                     32.501                     208677.168
1.000                      0.571                     34.258                     209706.770
1.000                      0.498                     29.866                     210689.571
1.000                      0.561                     33.672                     211719.173
1.000                      0.581                     34.843                     212733.175
1.000                      0.556                     33.379                     213762.777
1.000                      0.571                     34.258                     214761.178
1.000                      0.581                     34.843                     215775.180
1.000                      0.537                     32.208                     216804.782
1.000                      0.537                     32.208                     217803.184
1.000                      0.581                     34.843                     218817.186
1.000                      0.586                     35.136                     219846.787
1.000                      0.551                     33.086                     220829.589
