Datos de la Planta a lazo abierto (Gla) o lazo cerrado (Glc)
C:\Users\Paulo\Documents\PAULO\CONTROL\ETN1040\3D printer\3D PRINTER PROJECT\analisis\datos recolectados\Gp_tm1000ms_19V_3kHz.txt
28/02/2014 01:54:19 p.m.

r(t):Voltaje[V]  y(t):Voltaje[V]  y(t):Temp[Â°C]  Tiempo de muestreo:tm[ms]
1,03085          0,49288          29,5728           1316,2057
1,03085          0,47824          28,6944           2330,2075
1,03085          0,4636           27,816            3344,2093
1,03085          0,488            29,28             4498,6113
1,03085          0,47336          28,4016           5372,2129
1,03085                      0,51728                     31,0368                     6386,2147
1,03085                      0,50264                     30,1584                     7400,2164
1,03085                      0,49288                     29,5728                     8585,8185
1,03085                      0,49288                     29,5728                     9428,22
1,03085                      0,50752                     30,4512                     10442,2218
1,03085                      0,50264                     30,1584                     11456,2236
1,03085                      0,49288                     29,5728                     12641,8256
1,03085                      0,51728                     31,0368                     13484,2271
1,03085                      0,4636                     27,816                     14498,2289
1,03085                      0,50264                     30,1584                     15512,2307
1,03085                      0,53192                     31,9152                     16697,8328
1,03085                      0,50752                     30,4512                     17540,2342
1,03085                      0,52216                     31,3296                     18554,236
1,03085                      0,49776                     29,8656                     19568,2378
1,03085                      0,52216                     31,3296                     20753,8399
1,03085                      0,50264                     30,1584                     21596,2414
1,03085                      0,5124                     30,744                     22610,2432
1,03085                      0,51728                     31,0368                     23624,2449
1,03085                      0,50752                     30,4512                     24809,847
1,03085                      0,50752                     30,4512                     25652,2485
1,03085                      0,50264                     30,1584                     26666,2503
1,03085                      0,52216                     31,3296                     27680,2521
1,03085                      0,50752                     30,4512                     28865,8541
1,03085                      0,53192                     31,9152                     29708,2556
1,03085                      0,49288                     29,5728                     30722,2574
1,03085                      0,5124                     30,744                     31783,0593
1,03085                      0,49776                     29,8656                     32750,261
1,03085                      0,53192                     31,9152                     33764,2627
1,03085                      0,52216                     31,3296                     34949,8648
1,03085                      0,52704                     31,6224                     35792,2663
1,03085                      0,5368                     32,208                     36806,2681
1,03085                      0,54168                     32,5008                     37820,2699
1,03085                      0,54168                     32,5008                     39005,8719
1,03085                      0,54168                     32,5008                     39848,2734
1,03085                      0,52216                     31,3296                     40862,2752
1,03085                      0,52704                     31,6224                     41876,277
1,03085                      0,53192                     31,9152                     43061,8791
1,03085                      0,57584                     34,5504                     43904,2806
1,03085                      0,53192                     31,9152                     44918,2823
1,03085                      0,54168                     32,5008                     45932,2841
1,03085                      0,5612                     33,672                     46946,2859
1,03085                      0,5612                     33,672                     47960,2877
1,03085                      0,55144                     33,0864                     49161,4898
1,03085                      0,5368                     32,208                     49988,2912
1,03085                      0,52216                     31,3296                     51002,293
1,03085                      0,52704                     31,6224                     52016,2948
1,03085                      0,54656                     32,7936                     53201,8969
1,03085                      0,54656                     32,7936                     54044,2984
1,03085                      0,54656                     32,7936                     55058,3001
1,03085                      0,56608                     33,9648                     56072,3019
1,03085                      0,55144                     33,0864                     57257,904
1,03085                      0,54656                     32,7936                     58100,3055
1,03085                      0,55144                     33,0864                     59114,3073
1,03085                      0,58072                     34,8432                     60128,309
1,03085                      0,57096                     34,2576                     61298,3111
1,03085                      0,55632                     33,3792                     62156,3126
1,03085                      0,57584                     34,5504                     63170,3144
1,03085                      0,55632                     33,3792                     64184,3162
1,03085                      0,5856                     35,136                     65369,9183
1,03085                      0,56608                     33,9648                     66212,3197
1,03085                      0,5612                     33,672                     67226,3215
1,03085                      0,61488                     36,8928                     68240,3233
1,03085                      0,56608                     33,9648                     69254,3251
1,03085                      0,56608                     33,9648                     70268,3269
1,03085                      0,59048                     35,4288                     71282,3286
1,03085                      0,57584                     34,5504                     72296,3304
1,03085                      0,56608                     33,9648                     73310,3322
1,03085                      0,57584                     34,5504                     74324,334
1,03085                      0,59048                     35,4288                     75494,336
1,03085                      0,5856                     35,136                     76352,3375
1,03085                      0,57584                     34,5504                     77366,3393
1,03085                      0,5612                     33,672                     78380,3411
1,03085                      0,61488                     36,8928                     79565,9432
1,03085                      0,57584                     34,5504                     80408,3447
1,03085                      0,60512                     36,3072                     81422,3464
1,03085                      0,59536                     35,7216                     82436,3482
1,03085                      0,63928                     38,3568                     83450,35
1,03085                      0,59048                     35,4288                     84464,3518
1,03085                      0,61976                     37,1856                     85478,3536
1,03085                      0,5856                     35,136                     86492,3554
1,03085                      0,62464                     37,4784                     87506,3571
1,03085                      0,62952                     37,7712                     88520,3589
1,03085                      0,60512                     36,3072                     89534,3607
1,03085                      0,59536                     35,7216                     90548,3625
1,03085                      0,60512                     36,3072                     91562,3643
1,03085                      0,62952                     37,7712                     92576,366
1,03085                      0,61976                     37,1856                     93590,3678
1,03085                      0,61                     36,6                     94604,3696
1,03085                      0,61488                     36,8928                     95618,3714
1,03085                      0,62464                     37,4784                     96632,3732
1,03085                      0,61976                     37,1856                     97646,3749
1,03085                      0,64416                     38,6496                     98660,3767
1,03085                      0,66856                     40,1136                     99674,3785
1,03085                      0,66368                     39,8208                     100688,3803
1,03085                      0,6344                     38,064                     101702,3821
1,03085                      0,67344                     40,4064                     102716,3838
1,03085                      0,60512                     36,3072                     103730,3856
1,03085                      0,67344                     40,4064                     104744,3874
1,03085                      0,63928                     38,3568                     105758,3892
1,03085                      0,65392                     39,2352                     106772,391
1,03085                      0,6344                     38,064                     107786,3928
1,03085                      0,66856                     40,1136                     108800,3945
1,03085                      0,61976                     37,1856                     109814,3963
1,03085                      0,68808                     41,2848                     110828,3981
1,03085                      0,62952                     37,7712                     111842,3999
1,03085                      0,66368                     39,8208                     112856,4017
1,03085                      0,67344                     40,4064                     113870,4034
1,03085                      0,6832                     40,992                     114884,4052
1,03085                      0,61976                     37,1856                     115898,407
1,03085                      0,63928                     38,3568                     116912,4088
1,03085                      0,6832                     40,992                     117926,4106
1,03085                      0,6832                     40,992                     118940,4123
1,03085                      0,6588                     39,528                     119954,4141
1,03085                      0,70272                     42,1632                     120968,4159
1,03085                      0,69296                     41,5776                     121982,4177
1,03085                      0,7076                     42,456                     122996,4195
1,03085                      0,6588                     39,528                     124010,4213
1,03085                      0,69296                     41,5776                     125024,423
1,03085                      0,66368                     39,8208                     126038,4248
1,03085                      0,68808                     41,2848                     127052,4266
1,03085                      0,66856                     40,1136                     128066,4284
1,03085                      0,71248                     42,7488                     129080,4302
1,03085                      0,7076                     42,456                     130094,4319
1,03085                      0,67832                     40,6992                     131108,4337
1,03085                      0,69296                     41,5776                     132122,4355
1,03085                      0,69784                     41,8704                     133136,4373
1,03085                      0,69296                     41,5776                     134150,4391
1,03085                      0,70272                     42,1632                     135164,4408
1,03085                      0,6832                     40,992                     136178,4426
1,03085                      0,70272                     42,1632                     137192,4444
1,03085                      0,72712                     43,6272                     138206,4462
1,03085                      0,67832                     40,6992                     139220,448
1,03085                      0,70272                     42,1632                     140234,4497
1,03085                      0,66368                     39,8208                     141248,4515
1,03085                      0,71736                     43,0416                     142262,4533
1,03085                      0,732                     43,92                     143276,4551
1,03085                      0,7076                     42,456                     144290,4569
1,03085                      0,71736                     43,0416                     145304,4587
1,03085                      0,72712                     43,6272                     146318,4604
1,03085                      0,74176                     44,5056                     147332,4622
1,03085                      0,68808                     41,2848                     148346,464
1,03085                      0,7564                     45,384                     149360,4658
1,03085                      0,71248                     42,7488                     150374,4676
1,03085                      0,74664                     44,7984                     151388,4693
1,03085                      0,7076                     42,456                     152402,4711
1,03085                      0,73688                     44,2128                     153416,4729
1,03085                      0,69784                     41,8704                     154430,4747
1,03085                      0,7564                     45,384                     155444,4765
1,03085                      0,71736                     43,0416                     156458,4782
1,03085                      0,73688                     44,2128                     157472,48
1,03085                      0,73688                     44,2128                     158486,4818
1,03085                      0,74176                     44,5056                     159500,4836
1,03085                      0,732                     43,92                     160514,4854
1,03085                      0,77104                     46,2624                     161528,4871
1,03085                      0,74664                     44,7984                     162542,4889
1,03085                      0,77104                     46,2624                     163556,4907
1,03085                      0,75152                     45,0912                     164570,4925
1,03085                      0,7564                     45,384                     165584,4943
1,03085                      0,72712                     43,6272                     166598,4961
1,03085                      0,77592                     46,5552                     167612,4978
1,03085                      0,80032                     48,0192                     168798,0999
1,03085                      0,79056                     47,4336                     169640,5014
1,03085                      0,73688                     44,2128                     170654,5032
1,03085                      0,74176                     44,5056                     171668,505
1,03085                      0,76616                     45,9696                     172682,5067
1,03085                      0,76128                     45,6768                     173696,5085
1,03085                      0,77104                     46,2624                     174710,5103
1,03085                      0,75152                     45,0912                     175724,5121
1,03085                      0,77104                     46,2624                     176738,5139
1,03085                      0,77104                     46,2624                     177752,5156
1,03085                      0,77104                     46,2624                     178766,5174
1,03085                      0,74664                     44,7984                     179780,5192
1,03085                      0,74664                     44,7984                     180794,521
1,03085                      0,74664                     44,7984                     181808,5228
1,03085                      0,78568                     47,1408                     182822,5245
1,03085                      0,80032                     48,0192                     183836,5263
1,03085                      0,7808                     46,848                     184850,5281
1,03085                      0,77592                     46,5552                     185864,5299
1,03085                      0,78568                     47,1408                     186878,5317
1,03085                      0,7808                     46,848                     187892,5335
1,03085                      0,75152                     45,0912                     188906,5352
1,03085                      0,77104                     46,2624                     189920,537
1,03085                      0,79544                     47,7264                     190934,5388
1,03085                      0,7564                     45,384                     191948,5406
1,03085                      0,8052                     48,312                     192962,5424
1,03085                      0,76128                     45,6768                     193992,1442
1,03085                      0,80032                     48,0192                     194990,5459
1,03085                      0,79544                     47,7264                     196004,5477
1,03085                      0,83448                     50,0688                     197018,5495
1,03085                      0,81496                     48,8976                     198032,5513
1,03085                      0,78568                     47,1408                     199046,553
1,03085                      0,80032                     48,0192                     200060,5548
1,03085                      0,80032                     48,0192                     201074,5566
1,03085                      0,79056                     47,4336                     202088,5584
1,03085                      0,81496                     48,8976                     203102,5602
1,03085                      0,82472                     49,4832                     204116,5619
1,03085                      0,81984                     49,1904                     205130,5637
1,03085                      0,80032                     48,0192                     206144,5655
1,03085                      0,78568                     47,1408                     207158,5673
1,03085                      0,84912                     50,9472                     208172,5691
1,03085                      0,8296                     49,776                     209186,5709
1,03085                      0,8052                     48,312                     210200,5726
